Data from Subt8__0__15-37-03-459.txt Node

Date: Mon Oct 05 15:37:03 EDT 2020
User: Jared
Spectrometer: USB4A00814
Scans to average: 5
Trigger mode: 4
Integration Time (sec): 3.000000E-1
Electric dark correction enabled: true
Boxcar width: 2
XAxis mode: Wavelengths
Number of Pixels in Spectrum: 3648
>>>>>Begin Spectral Data<<<<<
198.396	35.43
198.5	17.82
198.604	12.49
198.708	7.74
198.812	-2.25
198.916	-9.95
199.02	-3.4
199.125	-4.87
199.229	-9.05
199.333	-14.29
199.437	-14.38
199.541	-10.28
199.645	-0.37
199.749	3.48
199.853	14.87
199.957	10.53
200.061	9.63
200.165	3.24
200.269	0.78
200.373	-2.42
200.477	5.04
200.581	-3.15
200.685	7.5
200.789	-1.19
200.893	-2.17
200.996	-3.24
201.1	4.3
201.204	-3.07
201.308	-0.12
201.412	0.61
201.516	0.61
201.62	-7.74
201.724	-16.59
201.828	-6.02
201.932	-11.92
202.035	-15.28
202.139	0.12
202.243	4.79
202.347	3.81
202.451	12
202.555	18.47
202.659	22.49
202.762	22.81
202.866	26.01
202.97	22.81
203.074	18.8
203.178	5.53
203.281	4.46
203.385	-4.46
203.489	-1.35
203.593	0.53
203.697	6.27
203.8	10.94
203.904	18.64
204.008	28.22
204.112	26.91
204.215	16.92
204.319	11.35
204.423	3.15
204.527	-15.28
204.63	-10.53
204.734	-0.37
204.838	-2.25
204.941	6.18
205.045	22.16
205.149	17.74
205.252	6.68
205.356	11.76
205.46	16.42
205.563	8.64
205.667	8.4
205.771	11.67
205.874	15.36
205.978	8.64
206.082	7.58
206.185	7.66
206.289	16.02
206.392	12.08
206.496	15.93
206.6	13.89
206.703	15.28
206.807	6.92
206.91	11.26
207.014	7.5
207.117	4.38
207.221	6.35
207.324	14.21
207.428	9.87
207.531	7
207.635	15.61
207.739	13.07
207.842	6.02
207.946	7.99
208.049	12.9
208.153	-2.99
208.256	-2.25
208.359	6.43
208.463	10.12
208.566	1.6
208.67	10.12
208.773	14.29
208.877	16.02
208.98	12.25
209.084	18.88
209.187	30.35
209.29	19.54
209.394	2.58
209.497	4.87
209.601	11.84
209.704	3.07
209.807	7.41
209.911	9.95
210.014	8.07
210.118	-6.18
210.221	-1.02
210.324	-1.27
210.428	9.13
210.531	10.2
210.634	10.44
210.738	1.93
210.841	0.78
210.944	-11.51
211.048	-18.47
211.151	-18.55
211.254	-22.98
211.357	-20.19
211.461	-6.1
211.564	0.2
211.667	7.17
211.77	22.16
211.874	22.57
211.977	21.5
212.08	14.7
212.183	20.19
212.287	15.52
212.39	15.28
212.493	9.63
212.596	15.03
212.7	1.11
212.803	0.2
212.906	-1.68
213.009	1.27
213.112	4.3
213.215	14.13
213.319	3.4
213.422	3.07
213.525	8.48
213.628	7
213.731	4.22
213.834	8.23
213.937	6.59
214.041	-4.3
214.144	-10.61
214.247	-8.64
214.35	6.18
214.453	-2.25
214.556	-2.99
214.659	-2.17
214.762	-15.11
214.865	-28.38
214.968	-10.2
215.071	-5.2
215.174	-1.93
215.277	7.82
215.38	18.72
215.483	12.82
215.586	10.77
215.689	11.43
215.792	17.57
215.895	21.59
215.998	25.93
216.101	25.85
216.204	26.58
216.307	21.5
216.41	16.1
216.513	8.89
216.616	7.99
216.719	4.38
216.822	6.1
216.925	-1.19
217.028	-1.6
217.131	-6.35
217.234	-0.45
217.337	1.84
217.44	-2.42
217.542	-6.68
217.645	9.87
217.748	5.78
217.851	-5.94
217.954	0.78
218.057	7.41
218.16	-6.84
218.263	-4.46
218.365	6.35
218.468	11.92
218.571	16.42
218.674	16.02
218.777	17
218.879	17.82
218.982	10.04
219.085	-6.84
219.188	-8.89
219.291	-19.05
219.393	-31.17
219.496	-38.95
219.599	-21.09
219.702	-12.66
219.804	-9.38
219.907	9.05
220.01	18.47
220.113	11.59
220.215	9.63
220.318	13.64
220.421	7.5
220.523	7.91
220.626	16.26
220.729	19.54
220.831	23.96
220.934	15.93
221.037	24.29
221.139	15.03
221.242	21.01
221.345	9.3
221.447	9.38
221.55	4.05
221.653	5.86
221.755	-3.81
221.858	6.27
221.96	7.5
222.063	4.55
222.166	5.2
222.268	2.5
222.371	0.53
222.473	5.45
222.576	8.48
222.679	11.26
222.781	14.87
222.884	20.6
222.986	18.23
223.089	13.72
223.191	1.35
223.294	-0.53
223.396	-1.76
223.499	-4.46
223.601	-5.37
223.704	3.24
223.806	3.07
223.909	-7.17
224.011	-2.5
224.114	-3.73
224.216	-9.13
224.319	-7.09
224.421	-10.44
224.523	-11.1
224.626	-3.48
224.728	-7.17
224.831	-8.89
224.933	-3.4
225.036	-10.36
225.138	-15.77
225.24	-4.05
225.343	8.81
225.445	15.2
225.547	21.01
225.65	15.77
225.752	20.93
225.855	6.84
225.957	-2.83
226.059	2.83
226.162	7
226.264	-1.68
226.366	1.19
226.469	2.74
226.571	3.07
226.673	4.55
226.775	5.12
226.878	3.4
226.98	3.56
227.082	4.79
227.185	2.42
227.287	-7.33
227.389	-10.12
227.491	-8.23
227.594	-13.07
227.696	-9.13
227.798	5.2
227.9	16.67
228.002	18.96
228.105	12.57
228.207	9.87
228.309	-1.43
228.411	-3.48
228.513	0.12
228.616	-0.04
228.718	9.95
228.82	19.29
228.922	21.59
229.024	19.62
229.126	23.72
229.228	24.7
229.331	25.85
229.433	17.33
229.535	14.05
229.637	15.52
229.739	8.4
229.841	2.01
229.943	-0.37
230.045	-97.2
230.147	-96.71
230.249	-104.41
230.352	-104.32
230.454	-60.01
230.556	35.1
230.658	22.9
230.76	27.48
230.862	26.66
230.964	-14.29
231.066	-6.43
231.168	-1.76
231.27	-6.18
231.372	0.45
231.474	-1.84
231.576	-4.46
231.678	3.73
231.78	2.83
231.882	-2.83
231.984	-0.37
232.086	1.93
232.187	-5.78
232.289	6.27
232.391	18.64
232.493	10.53
232.595	10.04
232.697	9.63
232.799	6.1
232.901	1.76
233.003	3.15
233.105	-2.91
233.207	-3.97
233.308	-12.33
233.41	-17.65
233.512	-8.64
233.614	-14.29
233.716	-13.31
233.818	-5.94
233.919	-8.48
234.021	-10.44
234.123	-6.51
234.225	-4.71
234.327	-10.44
234.428	-12
234.53	-13.56
234.632	-9.71
234.734	-2.25
234.836	-5.61
234.937	-3.15
235.039	3.65
235.141	2.5
235.243	-1.6
235.344	7.66
235.446	14.38
235.548	3.4
235.649	-0.94
235.751	-4.38
235.853	0.86
235.955	-4.05
236.056	-0.45
236.158	3.15
236.26	4.79
236.361	0.53
236.463	-1.52
236.565	-0.37
236.666	1.93
236.768	5.61
236.87	-2.5
236.971	-2.5
237.073	-4.79
237.174	-0.45
237.276	-6.1
237.378	5.94
237.479	14.05
237.581	13.8
237.682	10.44
237.784	8.23
237.885	-2.25
237.987	-9.22
238.089	-7.17
238.19	-4.14
238.292	-1.76
238.393	0.7
238.495	7.58
238.596	5.12
238.698	0.78
238.799	3.48
238.901	7.66
239.002	1.35
239.104	-2.58
239.205	-12.49
239.307	-13.23
239.408	-15.69
239.51	-19.21
239.611	-1.6
239.713	4.38
239.814	14.13
239.915	17
240.017	23.72
240.118	1.84
240.22	-2.33
240.321	-8.23
240.422	-7.74
240.524	-9.95
240.625	-2.66
240.727	10.44
240.828	7.58
240.929	3.65
241.031	3.15
241.132	13.39
241.233	7.5
241.335	10.69
241.436	-0.53
241.537	-5.45
241.639	-2.33
241.74	1.19
241.841	-2.91
241.943	17
242.044	25.93
242.145	17.41
242.246	14.7
242.348	13.64
242.449	7.74
242.55	5.37
242.652	7.82
242.753	6.02
242.854	10.94
242.955	9.87
243.056	4.87
243.158	-3.65
243.259	-2.74
243.36	-11.1
243.461	-11.43
243.562	-4.71
243.664	-6.43
243.765	-15.52
243.866	-18.31
243.967	-19.05
244.068	-27.81
244.169	-20.6
244.271	-12.57
244.372	-4.05
244.473	-6.92
244.574	2.74
244.675	6.76
244.776	19.95
244.877	32.56
244.978	39.28
245.08	39.53
245.181	35.92
245.282	28.88
245.383	21.83
245.484	9.79
245.585	7.66
245.686	9.22
245.787	6.18
245.888	-1.6
245.989	9.38
246.09	4.38
246.191	0.37
246.292	-1.35
246.393	-8.4
246.494	-9.38
246.595	-2.42
246.696	-0.45
246.797	4.87
246.898	11.76
246.999	3.48
247.1	-1.43
247.201	-4.3
247.302	-9.95
247.403	-7
247.504	-3.24
247.605	-0.94
247.705	0.45
247.806	5.45
247.907	9.87
248.008	8.31
248.109	10.36
248.21	10.44
248.311	-0.12
248.412	-4.71
248.513	-2.09
248.613	-11.02
248.714	-15.61
248.815	-12.9
248.916	-12.49
249.017	-17.98
249.118	-2.91
249.218	0.04
249.319	5.28
249.42	9.54
249.521	14.79
249.622	0.45
249.722	-5.61
249.823	-0.04
249.924	-10.36
250.025	-8.31
250.125	-6.43
250.226	6.76
250.327	-1.19
250.428	3.15
250.528	-0.04
250.629	5.86
250.73	2.01
250.83	11.59
250.931	16.18
251.032	24.53
251.133	25.27
251.233	21.5
251.334	8.72
251.435	3.24
251.535	-1.76
251.636	-6.27
251.736	-7.25
251.837	-11.18
251.938	-9.13
252.038	-13.56
252.139	-17.08
252.24	-5.37
252.34	4.96
252.441	12.49
252.541	16.92
252.642	15.93
252.743	1.27
252.843	0.86
252.944	-9.05
253.044	-9.46
253.145	-6.84
253.245	1.93
253.346	1.93
253.446	4.87
253.547	15.28
253.647	16.75
253.748	18.15
253.848	26.09
253.949	38.13
254.049	32.15
254.15	28.71
254.25	18.64
254.351	-0.45
254.451	-7.58
254.552	-8.48
254.652	-6.43
254.753	6.27
254.853	15.69
254.954	19.95
255.054	22.16
255.154	22.16
255.255	9.79
255.355	3.15
255.456	-5.28
255.556	-11.76
255.656	-7.82
255.757	3.73
255.857	10.12
255.957	6.1
256.058	11.67
256.158	8.81
256.258	6.18
256.359	8.72
256.459	10.44
256.559	6.43
256.66	4.79
256.76	-5.78
256.86	-7.66
256.961	-4.14
257.061	-6.68
257.161	-12.98
257.261	-5.86
257.362	-1.27
257.462	-3.4
257.562	10.28
257.662	17.49
257.763	24.94
257.863	13.8
257.963	9.3
258.063	-2.33
258.164	2.25
258.264	-7.5
258.364	0.86
258.464	3.73
258.564	1.76
258.665	1.43
258.765	0.2
258.865	5.69
258.965	2.33
259.065	1.93
259.165	-0.37
259.265	9.54
259.366	4.38
259.466	6.43
259.566	6.76
259.666	6.92
259.766	4.3
259.866	-0.2
259.966	1.35
260.066	10.61
260.166	8.72
260.266	4.14
260.366	6.27
260.467	4.14
260.567	-3.81
260.667	4.55
260.767	2.99
260.867	3.4
260.967	5.28
261.067	4.22
261.167	-3.81
261.267	1.52
261.367	-6.18
261.467	1.52
261.567	7.17
261.667	18.8
261.767	11.59
261.867	26.75
261.967	14.79
262.066	12.49
262.166	0.86
262.266	-2.58
262.366	-8.64
262.466	-2.09
262.566	-5.94
262.666	4.22
262.766	19.54
262.866	11.59
262.966	11.35
263.066	17.41
263.165	0.94
263.265	0.12
263.365	-2.58
263.465	5.28
263.565	7.66
263.665	16.34
263.764	14.7
263.864	24.37
263.964	15.36
264.064	7.66
264.164	10.77
264.263	11.02
264.363	10.2
264.463	15.36
264.563	20.44
264.663	17.16
264.762	9.22
264.862	13.07
264.962	2.33
265.062	-10.53
265.161	-2.25
265.261	-2.74
265.361	-10.77
265.46	-5.86
265.56	2.25
265.66	-10.36
265.76	-11.67
265.859	-0.04
265.959	-2.99
266.059	5.37
266.158	2.17
266.258	23.47
266.358	21.75
266.457	26.5
266.557	22.57
266.657	35.27
266.756	22.08
266.856	19.37
266.955	14.29
267.055	11.26
267.155	-2.01
267.254	-5.37
267.354	-9.38
267.453	-8.4
267.553	-2.33
267.652	4.79
267.752	7.66
267.852	5.2
267.951	9.63
268.051	3.81
268.15	8.72
268.25	17.24
268.349	18.15
268.449	14.87
268.548	20.68
268.648	16.67
268.747	3.73
268.847	1.84
268.946	7.17
269.046	1.19
269.145	0.86
269.244	-4.05
269.344	-8.56
269.443	-15.03
269.543	-19.46
269.642	-11.59
269.742	-2.66
269.841	-2.01
269.94	0.7
270.04	8.97
270.139	2.91
270.239	-0.45
270.338	4.87
270.437	1.35
270.537	0.2
270.636	-0.7
270.735	-0.78
270.835	0.61
270.934	2.83
271.033	10.69
271.133	-0.94
271.232	1.76
271.331	2.99
271.431	11.26
271.53	-11.84
271.629	1.27
271.729	-3.32
271.828	-5.78
271.927	-13.23
272.026	1.27
272.126	3.07
272.225	7.99
272.324	1.19
272.423	1.35
272.523	7.33
272.622	17.16
272.721	5.04
272.82	22.73
272.919	22.08
273.019	19.29
273.118	7.41
273.217	23.31
273.316	12.08
273.415	18.64
273.514	21.01
273.614	19.78
273.713	10.53
273.812	2.42
273.911	-6.02
274.01	-19.54
274.109	-15.69
274.208	-7.25
274.307	-2.83
274.407	5.12
274.506	11.26
274.605	1.35
274.704	-2.99
274.803	4.3
274.902	-5.69
275.001	-3.65
275.1	3.97
275.199	7.09
275.298	6.76
275.397	9.46
275.496	7.66
275.595	9.95
275.694	1.93
275.793	-2.09
275.892	3.32
275.991	7.74
276.09	7.58
276.189	15.28
276.288	15.2
276.387	8.89
276.486	-0.12
276.585	-6.92
276.684	-9.13
276.783	-10.94
276.882	-9.13
276.981	-2.99
277.08	-10.69
277.178	-14.21
277.277	-7.41
277.376	-1.43
277.475	2.5
277.574	7.33
277.673	23.72
277.772	27.89
277.871	21.09
277.969	16.92
278.068	13.8
278.167	-0.37
278.266	3.81
278.365	7.25
278.464	10.69
278.562	16.42
278.661	11.43
278.76	-2.42
278.859	-5.78
278.958	-12.41
279.056	-5.86
279.155	-1.6
279.254	3.07
279.353	13.56
279.451	17.16
279.55	14.54
279.649	26.58
279.748	30.51
279.846	17.49
279.945	23.06
280.044	16.51
280.142	11.92
280.241	1.35
280.34	2.01
280.438	-3.48
280.537	5.37
280.636	-13.64
280.734	-6.35
280.833	-6.68
280.932	-13.39
281.03	-21.34
281.129	-13.8
281.228	-5.2
281.326	-0.7
281.425	-1.35
281.523	3.56
281.622	15.03
281.721	3.15
281.819	-10.61
281.918	6.18
282.016	13.48
282.115	3.81
282.213	7
282.312	18.15
282.41	10.85
282.509	11.43
282.607	9.54
282.706	6.18
282.805	5.69
282.903	-2.83
283.002	-12.57
283.1	-6.18
283.198	-4.55
283.297	-4.55
283.395	-5.28
283.494	-0.78
283.592	-9.22
283.691	-15.77
283.789	-10.77
283.888	-7.58
283.986	-8.97
284.085	8.15
284.183	10.28
284.281	8.31
284.38	7.58
284.478	3.56
284.576	-8.48
284.675	-8.15
284.773	-13.31
284.872	-12.33
284.97	-19.29
285.068	-16.02
285.167	-9.3
285.265	-7.09
285.363	0.86
285.462	10.28
285.56	11.02
285.658	6.59
285.757	12.25
285.855	4.3
285.953	3.4
286.051	13.72
286.15	14.21
286.248	3.65
286.346	-3.89
286.444	-3.48
286.543	-20.6
286.641	-21.59
286.739	-26.58
286.837	-16.34
286.936	-11.1
287.034	-2.25
287.132	-4.3
287.23	-2.01
287.328	1.27
287.427	-8.31
287.525	-20.11
287.623	-14.29
287.721	-5.86
287.819	-14.95
287.917	-10.77
288.016	3.4
288.114	1.6
288.212	4.63
288.31	4.87
288.408	3.97
288.506	-0.2
288.604	7.33
288.702	1.93
288.8	18.23
288.899	28.22
288.997	31.33
289.095	20.19
289.193	29.04
289.291	17.74
289.389	3.81
289.487	-0.78
289.585	1.19
289.683	-11.51
289.781	-7.25
289.879	-4.71
289.977	-2.5
290.075	4.14
290.173	11.1
290.271	9.13
290.369	11.1
290.467	7.99
290.565	7.17
290.663	12.82
290.761	3.97
290.859	2.17
290.957	-0.53
291.055	0.12
291.152	-12.41
291.25	-3.56
291.348	5.2
291.446	5.53
291.544	2.25
291.642	6.35
291.74	4.22
291.838	-10.85
291.936	-4.46
292.033	-8.56
292.131	-11.18
292.229	-11.1
292.327	0.2
292.425	-11.59
292.523	-13.8
292.62	-0.37
292.718	6.84
292.816	5.45
292.914	16.83
293.012	20.52
293.109	10.2
293.207	6.43
293.305	-1.93
293.403	2.17
293.5	12.98
293.598	17.82
293.696	18.39
293.794	31.01
293.891	20.36
293.989	13.39
294.087	10.85
294.185	8.64
294.282	0.04
294.38	7.5
294.478	1.27
294.575	0.78
294.673	-1.27
294.771	5.94
294.868	2.83
294.966	11.76
295.064	10.85
295.161	10.12
295.259	6.02
295.356	2.17
295.454	-0.12
295.552	-4.46
295.649	2.58
295.747	3.97
295.844	11.26
295.942	11.51
296.04	9.95
296.137	5.86
296.235	8.56
296.332	4.46
296.43	14.46
296.527	21.01
296.625	15.2
296.722	7.25
296.82	-1.6
296.917	-11.51
297.015	-6.59
297.112	-6.35
297.21	-4.71
297.307	4.71
297.405	-3.97
297.502	-9.79
297.6	-6.27
297.697	-10.28
297.795	-16.1
297.892	-18.64
297.99	-9.95
298.087	-7.58
298.184	-1.43
298.282	-0.53
298.379	10.28
298.477	6.51
298.574	7.58
298.671	0.78
298.769	3.65
298.866	7.17
298.964	6.18
299.061	1.84
299.158	6.92
299.256	6.43
299.353	6.02
299.45	8.97
299.548	12.74
299.645	7.91
299.742	11.84
299.839	2.01
299.937	-14.13
300.034	-15.44
300.131	-12.74
300.229	-8.56
300.326	-10.2
300.423	6.27
300.52	5.78
300.618	9.79
300.715	-4.79
300.812	-3.48
300.909	-14.79
301.006	-9.95
301.104	-13.8
301.201	-0.61
301.298	3.81
301.395	10.12
301.492	-4.05
301.59	-0.94
301.687	-5.37
301.784	-8.97
301.881	-10.28
301.978	-4.46
302.075	-5.12
302.173	-7.5
302.27	-7.91
302.367	-2.58
302.464	-5.53
302.561	-5.04
302.658	-9.95
302.755	-2.91
302.852	0.45
302.949	9.3
303.046	9.22
303.143	24.04
303.24	20.6
303.338	11.1
303.435	16.42
303.532	19.78
303.629	6.84
303.726	3.89
303.823	0.45
303.92	-2.74
304.017	-5.04
304.114	-3.15
304.211	-0.78
304.308	3.4
304.405	-11.59
304.502	-8.07
304.599	-7.82
304.695	-12.49
304.792	-14.87
304.889	-15.85
304.986	-16.75
305.083	-7.91
305.18	-11.76
305.277	-15.44
305.374	-13.31
305.471	-15.52
305.568	-21.5
305.665	-10.61
305.761	-5.45
305.858	6.1
305.955	17.57
306.052	8.4
306.149	8.4
306.246	13.56
306.343	8.4
306.439	-10.2
306.536	7
306.633	8.64
306.73	5.69
306.827	10.36
306.923	12.16
307.02	-0.04
307.117	-0.61
307.214	6.27
307.31	9.54
307.407	10.69
307.504	-0.12
307.601	2.58
307.697	-3.24
307.794	-21.26
307.891	-18.39
307.988	-4.22
308.084	-13.23
308.181	-7.58
308.278	7.09
308.374	-9.3
308.471	-7.66
308.568	-1.68
308.664	-2.17
308.761	-7.25
308.858	15.36
308.954	24.29
309.051	18.96
309.147	17.9
309.244	18.96
309.341	1.35
309.437	-13.39
309.534	-8.89
309.63	-16.59
309.727	-12.33
309.824	0.12
309.92	9.13
310.017	1.84
310.113	-3.48
310.21	-13.07
310.306	-21.01
310.403	-27.98
310.499	-25.19
310.596	-19.37
310.693	-11.26
310.789	-5.69
310.886	-1.6
310.982	2.66
311.078	5.61
311.175	3.07
311.271	12.25
311.368	14.95
311.464	12
311.561	9.05
311.657	20.93
311.754	15.52
311.85	5.04
311.947	-0.37
312.043	1.43
312.139	-12.41
312.236	-15.11
312.332	-6.92
312.429	3.73
312.525	-0.37
312.621	-5.94
312.718	-3.97
312.814	2.83
312.91	-0.2
313.007	3.32
313.103	10.53
313.199	8.64
313.296	-6.02
313.392	-6.59
313.488	-8.07
313.585	-10.36
313.681	-17.57
313.777	-10.04
313.873	-19.05
313.97	-13.07
314.066	-14.95
314.162	-6.27
314.259	-8.56
314.355	8.23
314.451	2.17
314.547	11.02
314.643	15.61
314.74	10.77
314.836	8.48
314.932	11.35
315.028	3.15
315.124	-0.61
315.221	-1.02
315.317	1.52
315.413	4.38
315.509	8.48
315.605	2.58
315.701	12.82
315.798	-2.17
315.894	-6.43
315.99	-1.02
316.086	3.32
316.182	-4.71
316.278	13.48
316.374	5.45
316.47	-2.83
316.566	-3.56
316.662	6.1
316.759	-16.02
316.855	-3.15
316.951	-3.24
317.047	-9.13
317.143	-25.11
317.239	-12.49
317.335	-8.56
317.431	-3.89
317.527	6.43
317.623	23.22
317.719	21.75
317.815	9.63
317.911	10.69
318.007	5.2
318.103	-2.42
318.199	0.94
318.295	5.28
318.391	7.25
318.487	10.28
318.582	7.99
318.678	-5.04
318.774	-17.49
318.87	-14.79
318.966	-19.05
319.062	-11.67
319.158	-3.4
319.254	3.65
319.35	-3.73
319.446	7.82
319.541	2.5
319.637	-0.2
319.733	-0.45
319.829	-4.79
319.925	-10.36
320.021	-6.35
320.116	6.27
320.212	15.52
320.308	17.9
320.404	9.71
320.5	6.43
320.595	-1.76
320.691	-5.69
320.787	-5.94
320.883	-5.12
320.978	-1.02
321.074	-12.16
321.17	-12.57
321.266	-14.7
321.361	-9.22
321.457	-10.28
321.553	-3.32
321.649	-4.14
321.744	-1.43
321.84	6.35
321.936	4.38
322.031	11.18
322.127	22.16
322.223	20.44
322.318	8.64
322.414	1.84
322.51	-4.3
322.605	-6.02
322.701	-5.94
322.796	-6.76
322.892	1.52
322.988	3.89
323.083	5.69
323.179	7.99
323.274	9.05
323.37	10.69
323.466	4.87
323.561	-10.2
323.657	-15.52
323.752	-11.35
323.848	-6.51
323.943	0.94
324.039	3.32
324.134	12
324.23	12.9
324.325	13.72
324.421	17.16
324.516	26.83
324.612	28.06
324.707	32.32
324.803	22.65
324.898	17.9
324.994	12.66
325.089	17.16
325.185	15.11
325.28	18.15
325.375	16.42
325.471	5.94
325.566	-6.59
325.662	-21.01
325.757	-22.73
325.853	-22.9
325.948	-18.31
326.043	-15.11
326.139	-8.72
326.234	-0.78
326.329	-1.35
326.425	3.65
326.52	1.6
326.615	8.07
326.711	3.07
326.806	7.91
326.901	8.64
326.997	12.49
327.092	4.79
327.187	5.28
327.283	2.5
327.378	10.44
327.473	12.57
327.568	21.5
327.664	14.54
327.759	20.52
327.854	10.28
327.949	1.52
328.045	3.89
328.14	3.48
328.235	-3.73
328.33	-3.24
328.425	10.61
328.521	3.07
328.616	5.78
328.711	7.33
328.806	3.97
328.901	-2.5
328.996	-2.01
329.092	-7.5
329.187	1.27
329.282	7.09
329.377	10.77
329.472	3.32
329.567	9.95
329.662	-3.73
329.757	-8.23
329.853	-12.66
329.948	-8.07
330.043	-6.43
330.138	0.86
330.233	7.09
330.328	10.12
330.423	18.8
330.518	13.89
330.613	10.53
330.708	11.76
330.803	2.83
330.898	-0.61
330.993	7.58
331.088	17.16
331.183	22.08
331.278	26.25
331.373	18.06
331.468	18.88
331.563	12.25
331.658	3.81
331.753	7
331.848	8.07
331.943	6.59
332.038	5.28
332.133	8.72
332.227	8.15
332.322	12.41
332.417	5.12
332.512	16.18
332.607	15.61
332.702	2.99
332.797	-0.12
332.892	4.46
332.987	-5.2
333.081	-11.84
333.176	-0.78
333.271	0.61
333.366	-9.22
333.461	-6.59
333.556	-9.38
333.65	-5.04
333.745	3.48
333.84	13.89
333.935	15.93
334.029	22.81
334.124	10.44
334.219	1.27
334.314	6.35
334.409	-7.33
334.503	-8.4
334.598	-8.07
334.693	-3.07
334.787	-4.79
334.882	9.13
334.977	4.05
335.072	6.92
335.166	10.04
335.261	1.93
335.356	-2.33
335.45	10.85
335.545	23.22
335.64	16.26
335.734	16.51
335.829	17.33
335.924	8.64
336.018	-0.94
336.113	-3.24
336.207	8.07
336.302	2.33
336.397	4.46
336.491	-0.45
336.586	-4.14
336.68	-7.33
336.775	-2.91
336.869	-0.04
336.964	13.89
337.059	23.31
337.153	11.84
337.248	6.27
337.342	11.26
337.437	7.41
337.531	11.35
337.626	17.65
337.72	28.96
337.815	23.31
337.909	14.21
338.004	15.69
338.098	15.93
338.193	3.89
338.287	-7.99
338.381	-1.93
338.476	-10.04
338.57	-12.49
338.665	-7.58
338.759	5.37
338.854	8.64
338.948	6.76
339.042	18.06
339.137	9.63
339.231	4.22
339.326	-3.24
339.42	-4.22
339.514	-16.02
339.609	-9.87
339.703	-4.71
339.797	-7.58
339.892	-1.35
339.986	4.79
340.08	3.32
340.175	-7.5
340.269	3.07
340.363	6.02
340.457	2.01
340.552	6.27
340.646	12.33
340.74	1.68
340.835	-1.6
340.929	-3.97
341.023	1.27
341.117	-2.25
341.212	8.15
341.306	11.59
341.4	15.52
341.494	14.05
341.588	18.72
341.683	17.9
341.777	9.22
341.871	17
341.965	19.13
342.059	13.31
342.153	1.02
342.248	4.05
342.342	-4.05
342.436	-8.23
342.53	-5.94
342.624	4.79
342.718	-0.04
342.812	0.86
342.906	9.54
343.001	16.67
343.095	15.52
343.189	28.63
343.283	33.14
343.377	19.37
343.471	12.9
343.565	9.54
343.659	2.25
343.753	2.09
343.847	-1.11
343.941	-1.27
344.035	12.49
344.129	16.75
344.223	8.15
344.317	16.34
344.411	22.57
344.505	14.54
344.599	8.89
344.693	11.18
344.787	12.57
344.881	9.87
344.975	10.61
345.069	6.76
345.163	7.82
345.257	-0.45
345.351	6.43
345.444	6.1
345.538	11.84
345.632	9.13
345.726	14.87
345.82	6.43
345.914	8.07
346.008	7
346.102	18.64
346.195	10.77
346.289	10.2
346.383	5.53
346.477	1.27
346.571	-4.05
346.665	5.28
346.758	4.3
346.852	5.2
346.946	0.2
347.04	-4.71
347.133	1.27
347.227	6.1
347.321	11.84
347.415	19.29
347.509	24.29
347.602	15.03
347.696	14.54
347.79	11.18
347.883	13.48
347.977	7.91
348.071	3.81
348.165	2.91
348.258	2.58
348.352	-3.97
348.446	-4.96
348.539	-0.7
348.633	-6.76
348.727	-6.02
348.82	1.19
348.914	10.77
349.007	5.12
349.101	9.71
349.195	9.54
349.288	12.16
349.382	8.81
349.476	17.41
349.569	20.27
349.663	15.85
349.756	7.25
349.85	4.05
349.943	3.89
350.037	-2.17
350.13	-0.29
350.224	6.59
350.318	3.73
350.411	3.32
350.505	4.79
350.598	2.91
350.692	0.2
350.785	7.5
350.879	2.42
350.972	0.12
351.066	-7.99
351.159	-13.64
351.252	-15.28
351.346	-0.37
351.439	9.79
351.533	20.27
351.626	23.8
351.72	21.34
351.813	14.95
351.906	9.13
352	-1.6
352.093	3.4
352.187	13.23
352.28	11.43
352.373	12.49
352.467	26.5
352.56	27.07
352.653	9.79
352.747	13.23
352.84	5.04
352.933	3.32
353.027	-4.46
353.12	-2.91
353.213	-8.15
353.307	-2.66
353.4	-8.23
353.493	0.7
353.586	1.68
353.68	6.18
353.773	8.15
353.866	-4.05
353.96	-10.44
354.053	-4.05
354.146	-11.92
354.239	-10.69
354.332	-3.15
354.426	-3.4
354.519	-12.57
354.612	-10.28
354.705	-10.04
354.798	1.76
354.892	6.27
354.985	9.13
355.078	22.16
355.171	28.88
355.264	24.37
355.357	9.46
355.45	7.91
355.544	0.61
355.637	-1.35
355.73	-2.09
355.823	-1.27
355.916	-7.91
356.009	-9.63
356.102	-16.51
356.195	-20.6
356.288	-7.66
356.381	-2.01
356.474	-9.71
356.567	-9.3
356.66	-0.04
356.754	-6.43
356.847	-0.61
356.94	4.46
357.033	-3.4
357.126	-2.01
357.219	4.05
357.312	1.43
357.405	1.52
357.497	9.13
357.59	10.85
357.683	15.52
357.776	13.8
357.869	9.3
357.962	6.84
358.055	5.04
358.148	0.78
358.241	11.26
358.334	22.73
358.427	25.52
358.52	21.01
358.613	28.14
358.705	22.08
358.798	17.33
358.891	19.21
358.984	17.65
359.077	6.92
359.17	7.17
359.263	2.25
359.355	2.74
359.448	-2.33
359.541	-0.61
359.634	4.14
359.727	0.29
359.819	-1.6
359.912	11.76
360.005	10.36
360.098	6.02
360.19	10.69
360.283	10.12
360.376	8.31
360.469	22.16
360.561	22.24
360.654	27.32
360.747	24.37
360.84	13.8
360.932	-5.12
361.025	-7.82
361.118	-11.35
361.21	-12
361.303	0.04
361.396	5.45
361.488	15.03
361.581	22.24
361.674	27.4
361.766	16.92
361.859	27.07
361.951	15.36
362.044	11.02
362.137	12.16
362.229	19.78
362.322	21.67
362.414	14.13
362.507	24.29
362.6	25.19
362.692	19.62
362.785	2.66
362.877	5.94
362.97	-14.05
363.062	-5.28
363.155	-4.38
363.247	1.52
363.34	6.02
363.432	15.52
363.525	4.14
363.617	11.67
363.71	12.41
363.802	9.87
363.895	14.7
363.987	15.11
364.08	4.14
364.172	4.14
364.265	6.92
364.357	-7.09
364.449	-7.82
364.542	-2.66
364.634	0.12
364.727	8.81
364.819	24.37
364.911	24.29
365.004	26.58
365.096	33.96
365.188	28.88
365.281	22.81
365.373	31.58
365.466	32.32
365.558	21.26
365.65	22.98
365.742	23.31
365.835	14.95
365.927	17.9
366.019	17.82
366.112	17.74
366.204	13.8
366.296	14.46
366.389	-1.6
366.481	-0.2
366.573	-0.37
366.665	0.04
366.758	3.65
366.85	16.02
366.942	19.37
367.034	21.67
367.126	20.11
367.219	20.6
367.311	29.78
367.403	24.13
367.495	19.78
367.587	26.34
367.679	28.96
367.772	21.09
367.864	19.37
367.956	19.21
368.048	14.21
368.14	5.12
368.232	3.24
368.324	6.27
368.417	4.05
368.509	6.43
368.601	5.12
368.693	7.66
368.785	14.05
368.877	15.69
368.969	17.33
369.061	12.74
369.153	7.99
369.245	-2.58
369.337	6.43
369.429	4.87
369.521	15.44
369.613	18.8
369.705	17.98
369.797	9.54
369.889	8.31
369.981	9.38
370.073	6.43
370.165	10.04
370.257	11.84
370.349	7.91
370.441	-0.78
370.533	3.56
370.625	0.53
370.717	6.59
370.809	9.13
370.901	12.08
370.993	8.64
371.084	11.76
371.176	6.68
371.268	2.5
371.36	6.59
371.452	12.16
371.544	7.82
371.636	6.51
371.727	14.87
371.819	5.61
371.911	-12.74
372.003	5.94
372.095	-0.04
372.187	-2.66
372.278	-0.37
372.37	5.2
372.462	-10.69
372.554	-9.05
372.645	-6.18
372.737	-7.5
372.829	-0.53
372.921	10.36
373.012	22.73
373.104	14.13
373.196	23.22
373.288	25.6
373.379	29.04
373.471	23.22
373.563	31.5
373.654	26.99
373.746	28.14
373.838	22.32
373.929	19.7
374.021	6.1
374.113	0.29
374.204	-8.4
374.296	-17.16
374.388	-19.87
374.479	-14.62
374.571	-15.2
374.662	-6.68
374.754	-0.29
374.846	0.12
374.937	5.61
375.029	13.07
375.12	2.66
375.212	12.74
375.304	9.54
375.395	1.11
375.487	-3.48
375.578	2.17
375.67	-16.42
375.761	-3.65
375.853	-0.29
375.944	1.27
376.036	2.74
376.127	12.25
376.219	7.09
376.31	9.71
376.402	10.94
376.493	7
376.584	-1.76
376.676	-10.61
376.767	-12.16
376.859	-17.49
376.95	-13.64
377.042	-11.26
377.133	-6.02
377.224	-1.35
377.316	8.4
377.407	11.84
377.499	13.07
377.59	6.18
377.681	1.76
377.773	-3.73
377.864	-18.64
377.955	-10.28
378.047	-8.72
378.138	-3.81
378.229	3.65
378.321	18.06
378.412	12.57
378.503	13.48
378.595	4.87
378.686	-0.2
378.777	-2.91
378.868	-1.11
378.96	7.66
379.051	13.56
379.142	15.11
379.233	18.39
379.325	18.96
379.416	26.09
379.507	34.04
379.598	40.26
379.689	43.7
379.781	51.08
379.872	39.77
379.963	28.96
380.054	15.2
380.145	1.35
380.236	6.35
380.328	6.51
380.419	12
380.51	18.15
380.601	27.4
380.692	11.02
380.783	8.97
380.874	13.31
380.965	20.44
381.056	13.48
381.148	14.62
381.239	24.29
381.33	16.75
381.421	8.97
381.512	10.2
381.603	9.63
381.694	-5.12
381.785	0.12
381.876	8.15
381.967	6.18
382.058	3.07
382.149	8.23
382.24	-1.52
382.331	-8.64
382.422	-7.74
382.513	7.09
382.604	4.63
382.695	4.3
382.786	8.48
382.877	3.48
382.968	-10.61
383.059	-0.12
383.149	2.99
383.24	-4.63
383.331	2.83
383.422	6.43
383.513	2.58
383.604	9.38
383.695	9.3
383.786	14.13
383.877	13.72
383.967	13.39
384.058	9.22
384.149	11.84
384.24	10.61
384.331	18.96
384.421	15.93
384.512	15.61
384.603	10.36
384.694	6.43
384.785	-1.76
384.875	0.2
384.966	-3.15
385.057	-4.46
385.148	-7.82
385.238	-6.59
385.329	-4.46
385.42	3.89
385.511	11.18
385.601	14.87
385.692	12
385.783	13.07
385.873	-6.1
385.964	-9.38
386.055	-9.54
386.146	-4.46
386.236	-10.04
386.327	11.67
386.417	10.28
386.508	13.31
386.599	7.58
386.689	12.41
386.78	4.63
386.871	17.57
386.961	20.6
387.052	36.25
387.142	31.42
387.233	29.7
387.324	25.93
387.414	27.4
387.505	15.69
387.595	13.31
387.686	16.34
387.776	6.59
387.867	4.3
387.957	-6.27
388.048	-0.94
388.138	2.91
388.229	10.36
388.319	18.64
388.41	23.31
388.5	15.44
388.591	17.49
388.681	22.32
388.772	18.06
388.862	12.33
388.953	23.47
389.043	24.21
389.134	13.23
389.224	-1.84
389.314	7.33
389.405	6.51
389.495	-4.22
389.586	5.45
389.676	14.79
389.766	18.8
389.857	28.38
389.947	32.97
390.037	25.76
390.128	29.12
390.218	22.98
390.308	9.95
390.399	8.89
390.489	10.53
390.579	7.25
390.67	4.55
390.76	12.33
390.85	13.56
390.94	19.13
391.031	19.46
391.121	27.65
391.211	26.25
391.301	16.02
391.392	12.41
391.482	10.69
391.572	2.17
391.662	-4.22
391.753	3.24
391.843	-2.17
391.933	-2.83
392.023	7
392.113	13.39
392.204	9.71
392.294	16.1
392.384	18.88
392.474	20.36
392.564	21.59
392.654	24.37
392.744	21.09
392.835	17
392.925	18.39
393.015	6.76
393.105	16.02
393.195	24.86
393.285	22.9
393.375	13.07
393.465	16.26
393.555	6.35
393.645	10.53
393.735	21.01
393.825	21.67
393.915	31.17
394.005	37.64
394.095	16.75
394.185	11.84
394.275	5.53
394.365	-2.17
394.455	-6.76
394.545	-7.5
394.635	-24.45
394.725	-16.26
394.815	-12.98
394.905	0.29
394.995	9.38
395.085	30.02
395.175	28.38
395.265	20.77
395.355	6.43
395.445	4.71
395.535	-2.74
395.625	0.61
395.714	10.2
395.804	8.48
395.894	10.04
395.984	12.08
396.074	4.79
396.164	4.05
396.254	6.18
396.343	0.78
396.433	0.78
396.523	4.96
396.613	3.32
396.703	9.71
396.792	18.64
396.882	21.59
396.972	38.95
397.062	29.53
397.151	20.93
397.241	30.43
397.331	23.96
397.421	12.74
397.51	23.8
397.6	27.24
397.69	7.91
397.78	3.65
397.869	-5.12
397.959	-15.85
398.049	-12.41
398.138	-3.81
398.228	9.46
398.318	23.72
398.407	29.29
398.497	25.35
398.587	24.78
398.676	18.39
398.766	12.41
398.856	20.03
398.945	14.29
399.035	10.28
399.124	9.3
399.214	3.56
399.303	-9.95
399.393	5.45
399.483	8.72
399.572	8.89
399.662	10.2
399.751	19.95
399.841	15.2
399.93	12.08
400.02	17.65
400.109	17.65
400.199	27.57
400.288	20.44
400.378	16.67
400.467	14.46
400.557	14.38
400.646	-2.66
400.736	1.43
400.825	9.71
400.915	7.66
401.004	11.51
401.094	8.56
401.183	10.44
401.272	-1.02
401.362	-3.32
401.451	-8.72
401.541	-4.3
401.63	-13.89
401.719	-10.53
401.809	-1.52
401.898	1.6
401.987	2.99
402.077	18.39
402.166	25.85
402.255	25.6
402.345	30.51
402.434	32.07
402.523	21.59
402.613	16.1
402.702	7.09
402.791	-2.01
402.881	-7
402.97	0.53
403.059	5.45
403.148	10.53
403.238	15.77
403.327	19.7
403.416	11.02
403.505	1.11
403.594	1.6
403.684	6.43
403.773	-1.84
403.862	11.67
403.951	26.01
404.04	19.05
404.13	14.87
404.219	19.87
404.308	7.09
404.397	2.01
404.486	15.03
404.575	16.1
404.665	28.63
404.754	19.29
404.843	14.38
404.932	-3.4
405.021	-4.96
405.11	-19.29
405.199	-7.58
405.288	-4.14
405.377	12.33
405.466	12.33
405.555	23.14
405.644	24.78
405.733	27.07
405.823	17.9
405.912	12.66
406.001	8.89
406.09	6.92
406.179	3.97
406.268	6.68
406.357	6.43
406.446	2.66
406.534	1.6
406.623	7.17
406.712	7.25
406.801	5.37
406.89	13.8
406.979	8.07
407.068	14.13
407.157	11.26
407.246	18.72
407.335	17.82
407.424	31.42
407.513	21.34
407.602	20.44
407.69	16.67
407.779	14.7
407.868	-2.58
407.957	1.93
408.046	6.84
408.135	13.31
408.223	12.25
408.312	21.34
408.401	13.15
408.49	10.44
408.579	3.56
408.668	3.32
408.756	12.74
408.845	19.46
408.934	23.63
409.023	26.25
409.111	18.55
409.2	20.6
409.289	23.47
409.378	16.1
409.466	14.46
409.555	31.25
409.644	25.6
409.732	20.6
409.821	19.05
409.91	19.54
409.998	12.49
410.087	8.97
410.176	8.15
410.264	9.71
410.353	15.03
410.442	7.66
410.53	6.76
410.619	0.53
410.708	9.71
410.796	17.49
410.885	22.65
410.973	19.87
411.062	27.73
411.151	17.41
411.239	-2.5
411.328	2.58
411.416	6.35
411.505	9.71
411.593	15.03
411.682	28.63
411.77	28.63
411.859	32.15
411.947	29.53
412.036	27.32
412.124	27.81
412.213	12.08
412.301	1.6
412.39	7
412.478	14.13
412.567	11.18
412.655	25.85
412.744	37.89
412.832	29.04
412.92	16.02
413.009	9.38
413.097	1.76
413.186	-1.52
413.274	-4.05
413.363	0.7
413.451	9.38
413.539	9.95
413.628	5.78
413.716	14.62
413.804	16.51
413.893	10.61
413.981	19.7
414.069	20.93
414.158	14.46
414.246	14.87
414.334	12.41
414.423	5.04
414.511	4.87
414.599	8.81
414.687	10.69
414.776	9.95
414.864	5.86
414.952	20.44
415.04	20.93
415.129	27.16
415.217	25.76
415.305	35.43
415.393	28.47
415.482	31.91
415.57	30.92
415.658	33.96
415.746	29.12
415.834	25.19
415.922	20.03
416.011	13.39
416.099	25.93
416.187	30.84
416.275	23.31
416.363	24.86
416.451	17.57
416.539	2.74
416.628	3.73
416.716	7.66
416.804	2.66
416.892	11.1
416.98	30.27
417.068	24.7
417.156	27.48
417.244	25.27
417.332	38.79
417.42	26.09
417.508	24.78
417.596	30.35
417.684	33.87
417.772	23.22
417.86	29.86
417.948	31.91
418.036	24.04
418.124	33.71
418.212	28.63
418.3	17.49
418.388	22.57
418.476	30.76
418.564	24.04
418.652	35.68
418.74	41.66
418.828	30.43
418.916	22.98
419.004	29.2
419.091	21.59
419.179	22.57
419.267	29.94
419.355	25.27
419.443	14.87
419.531	12.41
419.619	13.48
419.706	11.92
419.794	22
419.882	26.75
419.97	28.96
420.058	28.63
420.146	19.54
420.233	12.08
420.321	11.59
420.409	10.77
420.497	6.68
420.584	13.56
420.672	10.44
420.76	8.31
420.848	8.07
420.935	6.43
421.023	14.46
421.111	25.76
421.199	22.73
421.286	21.5
421.374	20.85
421.462	17
421.549	19.87
421.637	21.91
421.725	25.27
421.812	36.58
421.9	35.76
421.988	23.63
422.075	29.61
422.163	30.19
422.25	20.11
422.338	19.37
422.426	27.98
422.513	28.96
422.601	36
422.688	41.66
422.776	37.15
422.864	33.46
422.951	30.92
423.039	23.22
423.126	24.29
423.214	34.86
423.301	38.62
423.389	37.81
423.476	39.94
423.564	39.85
423.651	42.97
423.739	42.39
423.826	47.88
423.914	38.71
424.001	42.23
424.089	37.4
424.176	38.54
424.264	40.34
424.351	52.22
424.438	47.14
424.526	48.13
424.613	49.19
424.701	56.97
424.788	52.63
424.876	54.68
424.963	60.5
425.05	66.31
425.138	67.38
425.225	73.85
425.312	74.34
425.4	73.69
425.487	73.03
425.574	64.43
425.662	63.94
425.749	60.09
425.836	62.95
425.924	64.92
426.011	71.39
426.098	69.84
426.185	80.49
426.273	85.4
426.36	84.91
426.447	80.81
426.534	82.62
426.622	85.73
426.709	77.37
426.796	79.99
426.883	88.68
426.971	88.43
427.058	85.24
427.145	95.89
427.232	94.58
427.319	82.53
427.406	91.71
427.494	88.92
427.581	87.37
427.668	94.25
427.755	102.85
427.842	106.13
427.929	119.23
428.016	116.61
428.104	124.39
428.191	129.14
428.278	143.07
428.365	140.53
428.452	140.78
428.539	132.83
428.626	149.05
428.713	139.06
428.8	138.4
428.887	151.59
428.974	163.71
429.061	159.21
429.148	158.88
429.235	174.45
429.322	172.48
429.409	170.51
429.496	175.92
429.583	183.05
429.67	180.43
429.757	192.55
429.844	192.63
429.931	188.95
430.018	189.19
430.105	196.56
430.192	199.1
430.279	204.84
430.366	200.74
430.453	205.74
430.539	214.42
430.626	216.31
430.713	217.13
430.8	223.6
430.887	225.48
430.974	229.5
431.061	235.48
431.147	241.13
431.234	260.54
431.321	268.32
431.408	268
431.495	270.62
431.582	280.53
431.668	267.92
431.755	284.38
431.842	293.8
431.929	302.65
432.015	307.48
432.102	326.81
432.189	332.14
432.276	337.05
432.362	344.35
432.449	357.62
432.536	367.36
432.623	370.4
432.709	385.88
432.796	385.55
432.883	394.48
432.969	408
433.056	421.35
433.143	416.52
433.229	429.54
433.316	434.62
433.403	439.13
433.489	445.02
433.576	464.93
433.662	470.66
433.749	481.15
433.836	498.11
433.922	510.07
434.009	525.55
434.095	542.92
434.182	554.79
434.268	558.4
434.355	577.08
434.442	578.47
434.528	593.79
434.615	603.13
434.701	626.47
434.788	619.84
434.874	637.61
434.961	647.69
435.047	666.04
435.134	667.84
435.22	685.37
435.307	687.01
435.393	716.67
435.48	713.64
435.566	719.86
435.652	735.34
435.739	761.97
435.825	762.38
435.912	792.85
435.998	818.57
436.084	840.53
436.171	864.61
436.257	889.35
436.344	913.44
436.43	937.76
436.516	953.08
436.603	953.98
436.689	971.27
436.775	985.93
436.862	994.94
436.948	1012.23
437.034	1035.66
437.121	1055.65
437.207	1080.8
437.293	1100.13
437.38	1119.46
437.466	1154.28
437.552	1174.35
437.638	1198.84
437.725	1211.13
437.811	1251.02
437.897	1248.48
437.983	1275.68
438.07	1286.08
438.156	1336.55
438.242	1338.84
438.328	1382.75
438.414	1376.52
438.501	1408.8
438.587	1419.37
438.673	1453.44
438.759	1480.07
438.845	1527.25
438.931	1563.21
439.017	1594.92
439.104	1627.19
439.19	1632.93
439.276	1655.62
439.362	1669.63
439.448	1682.57
439.534	1699.53
439.62	1740.32
439.706	1774.65
439.792	1804.87
439.878	1845.26
439.964	1887.37
440.05	1911.21
440.137	1925.71
440.223	1957.57
440.309	1972.07
440.395	2017.7
440.481	2035.31
440.567	2074.14
440.653	2102.65
440.739	2150.57
440.825	2150.57
440.911	2213.98
440.996	2259.36
441.082	2294.34
441.168	2320.88
441.254	2380.6
441.34	2396.49
441.426	2440.24
441.512	2481.03
441.598	2534.53
441.684	2545.42
441.77	2573.6
441.856	2629.39
441.941	2663.38
442.027	2698.53
442.113	2741.78
442.199	2825.99
442.285	2802.15
442.371	2835.49
442.457	2850.24
442.542	2900.13
442.628	2913.07
442.714	2980.41
442.8	3017.35
442.886	3086.49
442.971	3143.59
443.057	3197.99
443.143	3245.74
443.229	3302.76
443.314	3349.37
443.4	3401.55
443.486	3442.51
443.572	3497.32
443.657	3536.72
443.743	3573.25
443.829	3616.67
443.914	3667.63
444	3709.32
444.086	3784.11
444.171	3848.75
444.257	3862.84
444.343	3944.51
444.428	3988.09
444.514	4034.13
444.6	4069.35
444.685	4143.9
444.771	4171.92
444.857	4259.98
444.942	4320.93
445.028	4406.2
445.113	4479.77
445.199	4538.59
445.285	4571.76
445.37	4624.03
445.456	4683.58
445.541	4707.26
445.627	4745.02
445.712	4805.48
445.798	4864.46
445.883	4931.06
445.969	5037.47
446.054	5154.61
446.14	5235.71
446.225	5308.05
446.311	5378.99
446.396	5451.98
446.482	5477.7
446.567	5542.91
446.653	5602.3
446.738	5696.51
446.823	5758.27
446.909	5868.95
446.994	5926.37
447.08	6000.1
447.165	6011.65
447.251	6094.8
447.336	6140.83
447.421	6174.01
447.507	6225.29
447.592	6270.1
447.677	6311.72
447.763	6344.73
447.848	6422.88
447.933	6476.29
448.019	6549.04
448.104	6581.97
448.189	6673.63
448.275	6757.76
448.36	6863.69
448.445	6863.28
448.53	6996.48
448.616	7024.33
448.701	7091.83
448.786	7140.49
448.872	7277.29
448.957	7306.46
449.042	7408.53
449.127	7450.22
449.212	7550.57
449.298	7583.01
449.383	7608.9
449.468	7641.67
449.553	7735.22
449.638	7707.61
449.724	7801.98
449.809	7885.13
449.894	8010.47
449.979	8055.69
450.064	8150.55
450.149	8206.58
450.234	8356.82
450.319	8400.07
450.405	8455.69
450.49	8539.33
450.575	8665.57
450.66	8670.65
450.745	8720.37
450.83	8805.9
450.915	8867.42
451	8855.13
451.085	8986.61
451.17	9054.77
451.255	9218.36
451.34	9285.61
451.425	9389.9
451.51	9392.03
451.595	9427.5
451.68	9417.09
451.765	9457.89
451.85	9565.86
451.935	9659.98
452.02	9672.6
452.105	9752.88
452.19	9794.08
452.275	9780.32
452.36	9675.71
452.445	9741.16
452.53	9798.34
452.615	9844.05
452.699	9896.89
452.784	10030.01
452.869	10100.46
452.954	10081.13
453.039	10109.22
453.124	10151.49
453.209	10194.42
453.293	10177.79
453.378	10230.87
453.463	10245.62
453.548	10323.52
453.633	10281.25
453.718	10398.4
453.802	10374.48
453.887	10544.29
453.972	10570.92
454.057	10652.51
454.141	10577.06
454.226	10707.31
454.311	10714.77
454.396	10695.35
454.48	10712.39
454.565	10895.32
454.65	10833.06
454.735	10815.61
454.819	10847.56
454.904	10897.61
454.989	10865.74
455.073	10882.37
455.158	10913.17
455.243	10928.66
455.327	11039.25
455.412	10990.92
455.497	11078.73
455.581	11011.15
455.666	11124.53
455.75	11003.78
455.835	10993.78
455.92	11072.34
456.004	11179.9
456.089	11089.96
456.173	11167.37
456.258	11228.73
456.343	11073.57
456.427	11127.15
456.512	11156.06
456.596	11163.85
456.681	11299.75
456.765	11327.19
456.85	11262.64
456.934	11280.01
457.019	11209.88
457.103	11146.73
457.188	11150.82
457.272	11106.42
457.357	11121.08
457.441	11184.33
457.526	11032.45
457.61	11118.63
457.694	11127.72
457.779	11054.24
457.863	10985.1
457.948	11007.38
458.032	10871.48
458.116	10788.17
458.201	10762.53
458.285	10720.01
458.37	10714.93
458.454	10739.34
458.538	10652.92
458.623	10734.76
458.707	10702.64
458.791	10610.89
458.876	10524.63
458.96	10653
459.044	10543.56
459.129	10468.11
459.213	10554.53
459.297	10550.36
459.381	10494.65
459.466	10315.58
459.55	10331.55
459.634	10261.1
459.718	10244.47
459.803	10102.1
459.887	10102.34
459.971	10107.42
460.055	10081.7
460.14	10047.29
460.224	10116.52
460.308	10155.1
460.392	10005.11
460.476	10011.5
460.56	9892.06
460.645	9857.57
460.729	9752.06
460.813	9768.11
460.897	9653.02
460.981	9595.35
461.065	9532.52
461.149	9470.83
461.233	9439.21
461.318	9424.38
461.402	9387.36
461.486	9227.53
461.57	9218.77
461.654	9162.16
461.738	9063.53
461.822	9053.05
461.906	9042.97
461.99	8972.77
462.074	8855.87
462.158	8767.64
462.242	8706.69
462.326	8634.28
462.41	8544.9
462.494	8548.26
462.578	8480.84
462.662	8356.57
462.746	8302.51
462.83	8271.3
462.914	8146.12
462.998	8123.27
463.082	8067.48
463.166	8038.97
463.25	7969.02
463.334	7916.83
463.417	7771.59
463.501	7764.79
463.585	7666
463.669	7650.19
463.753	7599.64
463.837	7560.81
463.921	7474.47
464.004	7459.15
464.088	7354.38
464.172	7335.46
464.256	7354.21
464.34	7277.7
464.424	7157.69
464.507	7142.13
464.591	7015.15
464.675	6960.1
464.759	6946.34
464.842	6913.57
464.926	6810.19
465.01	6775.62
465.094	6717.79
465.177	6613.51
465.261	6591.8
465.345	6515.86
465.429	6479.65
465.512	6396.01
465.596	6377.58
465.68	6333.34
465.763	6368.57
465.847	6359.89
465.931	6302.79
466.014	6264.53
466.098	6210.55
466.182	6124.2
466.265	6065.88
466.349	6033.44
466.433	5962.58
466.516	5947.26
466.6	5879.68
466.683	5853.87
466.767	5780.06
466.851	5752.05
466.934	5665.3
467.018	5640.56
467.101	5576.41
467.185	5559.62
467.268	5554.21
467.352	5489.99
467.435	5438.3
467.519	5403.24
467.602	5354.82
467.686	5308.7
467.769	5276.35
467.853	5247.35
467.936	5191.72
468.02	5138.8
468.103	5076.55
468.187	5019.45
468.27	4941.13
468.354	4932.04
468.437	4891.41
468.52	4816.04
468.604	4825.71
468.687	4817.68
468.771	4738.63
468.854	4726.34
468.937	4710.12
469.021	4627.22
469.104	4579.05
469.187	4538.67
469.271	4489.84
469.354	4471.49
469.437	4451.34
469.521	4431.52
469.604	4407.84
469.687	4381.87
469.771	4351.81
469.854	4329.12
469.937	4282.1
470.021	4249.25
470.104	4216.32
470.187	4171.26
470.27	4137.18
470.354	4118.26
470.437	4092.21
470.52	4084.92
470.603	4056.99
470.686	4025.04
470.77	4013.9
470.853	3983.5
470.936	3943.04
471.019	3940.25
471.102	3921.08
471.186	3892
471.269	3877.91
471.352	3873.73
471.435	3854.24
471.518	3809.59
471.601	3802.71
471.684	3796.65
471.768	3764.94
471.851	3715.96
471.934	3711.21
472.017	3678.93
472.1	3636.5
472.183	3601.11
472.266	3607.25
472.349	3580.46
472.432	3562.11
472.515	3542.21
472.598	3496.74
472.681	3481.18
472.764	3471.51
472.847	3431.21
472.93	3429.08
473.013	3442.18
473.096	3392.54
473.179	3377.8
473.262	3359.04
473.345	3319.88
473.428	3304.4
473.511	3283.26
473.594	3257.38
473.677	3238.29
473.76	3231.24
473.843	3196.76
473.926	3176.93
474.009	3161.94
474.091	3149.98
474.174	3127.13
474.257	3110.17
474.34	3089.12
474.423	3077.73
474.506	3061.75
474.589	3055.69
474.671	3054.46
474.754	3050.37
474.837	3034.31
474.92	3017.27
475.003	3006.79
475.085	2985.57
475.168	2976.97
475.251	2952.72
475.334	2943.96
475.417	2917.66
475.499	2910.04
475.582	2908.32
475.665	2901.28
475.748	2897.1
475.83	2879.24
475.913	2870.15
475.996	2849.83
476.078	2851.88
476.161	2838.36
476.244	2854.25
476.326	2848.77
476.409	2846.8
476.492	2837.38
476.574	2818.37
476.657	2801.99
476.74	2783.56
476.822	2772.42
476.905	2758
476.988	2753.99
477.07	2729.49
477.153	2710.9
477.235	2688.12
477.318	2663.22
477.4	2648.97
477.483	2656.99
477.566	2664.94
477.648	2654.95
477.731	2665.68
477.813	2658.71
477.896	2639.63
477.978	2623.16
478.061	2613.17
478.143	2611.69
478.226	2595.15
478.308	2593.75
478.391	2579.83
478.473	2570.57
478.556	2546.16
478.638	2544.52
478.72	2503.97
478.803	2500.37
478.885	2512.33
478.968	2499.38
479.05	2493.4
479.133	2517.73
479.215	2497.5
479.297	2491.35
479.38	2480.87
479.462	2482.02
479.544	2456.46
479.627	2462.6
479.709	2432.21
479.792	2422.21
479.874	2400.18
479.956	2391.74
480.039	2384.12
480.121	2380.27
480.203	2380.93
480.285	2376.59
480.368	2374.13
480.45	2364.46
480.532	2356.93
480.615	2349.06
480.697	2344.31
480.779	2335.63
480.861	2328.09
480.943	2320.8
481.026	2319.49
481.108	2312.44
481.19	2308.43
481.272	2311.87
481.354	2312.85
481.437	2298.93
481.519	2292.37
481.601	2295.32
481.683	2289.01
481.765	2275.91
481.847	2257.89
481.93	2249.53
482.012	2241.17
482.094	2225.45
482.176	2222.66
482.258	2230.44
482.34	2239.13
482.422	2228.64
482.504	2218.32
482.586	2209.72
482.668	2199.81
482.75	2185.88
482.833	2182.36
482.915	2191.78
482.997	2186.86
483.079	2183.5
483.161	2162.94
483.243	2149.02
483.325	2122.39
483.407	2113.14
483.489	2110.35
483.571	2129.44
483.653	2120.92
483.735	2120.02
483.816	2114.53
483.898	2103.88
483.98	2078.07
484.062	2078.97
484.144	2089.21
484.226	2081.43
484.308	2066.52
484.39	2077.01
484.472	2068.9
484.554	2059.23
484.636	2040.39
484.717	2035.8
484.799	2018.36
484.881	2021.06
484.963	1991.49
485.045	2005
485.127	2004.35
485.208	1994.84
485.29	1986.49
485.372	1989.93
485.454	1978.62
485.536	1980.02
485.617	1965.76
485.699	1958.31
485.781	1947.74
485.863	1957.82
485.944	1947.5
486.026	1950.85
486.108	1939.47
486.19	1942.01
486.271	1910.88
486.353	1896.79
486.435	1893.59
486.516	1888.27
486.598	1873.2
486.68	1870
486.761	1869.43
486.843	1854.6
486.925	1832.97
487.006	1833.38
487.088	1828.47
487.17	1832.97
487.251	1819.37
487.333	1833.79
487.414	1829.12
487.496	1805.78
487.578	1772.6
487.659	1773.75
487.741	1748.27
487.822	1721.65
487.904	1728.36
487.985	1719.93
488.067	1699.45
488.148	1691.01
488.23	1684.45
488.311	1673.89
488.393	1666.1
488.474	1656.36
488.556	1645.05
488.637	1649.56
488.719	1632.11
488.8	1632.52
488.882	1620.56
488.963	1608.43
489.045	1580.42
489.126	1581.89
489.207	1553.47
489.289	1557.97
489.37	1556.25
489.452	1557.89
489.533	1536.67
489.614	1544.54
489.696	1536.92
489.777	1527.58
489.859	1519.14
489.94	1522.5
490.021	1516.28
490.103	1500.71
490.184	1490.8
490.265	1477.86
490.347	1457.87
490.428	1437.39
490.509	1421.74
490.59	1413.79
490.672	1410.27
490.753	1415.35
490.834	1414.78
490.915	1418.05
490.997	1408.47
491.078	1394.38
491.159	1387.99
491.24	1378.41
491.322	1378.32
491.403	1362.68
491.484	1357.43
491.565	1351.29
491.646	1351.21
491.728	1329.91
491.809	1325.24
491.89	1311.23
491.971	1290.75
492.052	1276.34
492.133	1272.16
492.214	1277.15
492.296	1274.61
492.377	1277.89
492.458	1272.98
492.539	1254.3
492.62	1240.86
492.701	1246.11
492.782	1219.48
492.863	1204.25
492.944	1205.97
493.025	1193.02
493.106	1183.85
493.187	1177.46
493.268	1169.35
493.349	1164.11
493.43	1149.61
493.511	1135.11
493.592	1129.05
493.673	1125.28
493.754	1109.88
493.835	1101.77
493.916	1093.82
493.997	1094.97
494.078	1088.5
494.159	1087.1
494.24	1092.26
494.321	1083.83
494.402	1064.98
494.483	1057.86
494.564	1049.83
494.644	1035.58
494.725	1007.15
494.806	1000.02
494.887	989.46
494.968	972.17
495.049	971.76
495.13	975.37
495.21	967.91
495.291	948.09
495.372	944.56
495.453	936.29
495.534	934.73
495.614	928.18
495.695	938.99
495.776	938.5
495.857	916.96
495.938	897.13
496.018	896.64
496.099	887.88
496.18	877.88
496.26	871.33
496.341	883.62
496.422	867.64
496.503	862.4
496.583	858.55
496.664	857.57
496.745	841.43
496.825	844.05
496.906	833.15
496.987	809.97
497.067	811.77
497.148	806.69
497.228	795.14
497.309	792.52
497.39	798.01
497.47	790.72
497.551	792.11
497.632	791.95
497.712	779.09
497.793	779.5
497.873	770.32
497.954	760.98
498.034	756.23
498.115	755.09
498.195	737.31
498.276	737.23
498.356	731.9
498.437	730.35
498.517	723.88
498.598	730.67
498.678	718.39
498.759	710.69
498.839	712.49
498.92	708.31
499	699.95
499.081	694.47
499.161	691.6
499.242	676.12
499.322	665.3
499.402	655.8
499.483	649.98
499.563	640.73
499.644	631.8
499.724	624.18
499.804	620.74
499.885	614.19
499.965	613.61
500.045	597.23
500.126	598.21
500.206	599.52
500.286	599.77
500.367	594.69
500.447	596.9
500.527	589.2
500.608	573.55
500.688	565.44
500.768	566.35
500.848	566.35
500.929	560.94
501.009	557.42
501.089	557.66
501.169	538.9
501.25	532.51
501.33	530.46
501.41	525.71
501.49	517.28
501.57	509
501.651	496.96
501.731	495.08
501.811	484.75
501.891	475.09
501.971	468.21
502.051	469.19
502.131	467.72
502.212	475.91
502.292	479.02
502.372	491.31
502.452	482.79
502.532	467.72
502.612	464.36
502.692	460.59
502.772	459.44
502.852	454.53
502.932	458.05
503.012	459.44
503.092	461.49
503.172	447.32
503.252	452.56
503.332	432
503.412	403.25
503.492	392.19
503.572	379.65
503.652	375.47
503.732	381.05
503.812	383.42
503.892	374.74
503.972	381.37
504.052	376.54
504.132	377.77
504.212	383.5
504.292	393.09
504.372	378.1
504.452	383.17
504.532	380.47
504.612	371.05
504.691	362.86
504.771	373.43
504.851	362.45
504.931	368.02
505.011	373.1
505.091	365.64
505.17	363.35
505.25	347.21
505.33	341.23
505.41	332.06
505.49	338.69
505.57	336.89
505.649	345.25
505.729	338.94
505.809	344.51
505.889	338.94
505.968	344.02
506.048	342.63
506.128	348.69
506.207	340.5
506.287	340.25
506.367	331.24
506.447	335.99
506.526	325.42
506.606	324.6
506.686	324.11
506.765	320.59
506.845	315.59
506.925	322.56
507.004	318.54
507.084	314.61
507.163	299.86
507.243	296.83
507.323	286.27
507.402	288.23
507.482	281.84
507.561	298.47
507.641	294.05
507.721	290.28
507.8	291.18
507.88	285.36
507.959	279.3
508.039	274.71
508.118	272.18
508.198	266.36
508.277	269.39
508.357	255.3
508.436	266.28
508.516	269.96
508.595	267.92
508.675	258
508.754	270.78
508.834	259.48
508.913	247.19
508.993	238.18
509.072	239.98
509.151	236.7
509.231	234
509.31	234.33
509.39	240.88
509.469	244.57
509.548	233.02
509.628	228.27
509.707	223.84
509.786	216.96
509.866	214.5
509.945	216.47
510.025	224.58
510.104	224.01
510.183	223.02
510.262	229.66
510.342	227.45
510.421	222.29
510.5	217.78
510.58	217.21
510.659	206.89
510.738	212.21
510.817	198.53
510.897	201.15
510.976	209.1
511.055	202.13
511.134	194.19
511.213	199.92
511.293	205.98
511.372	187.55
511.451	184.28
511.53	187.31
511.609	199.27
511.689	184.36
511.768	195.34
511.847	198.45
511.926	188.62
512.005	174.53
512.084	173.3
512.163	175.18
512.242	179.12
512.322	180.92
512.401	186.08
512.48	190.83
512.559	184.85
512.638	173.95
512.717	174.77
512.796	169.45
512.875	179.69
512.954	177.23
513.033	183.05
513.112	176.33
513.191	176.58
513.27	162.57
513.349	162.81
513.428	168.55
513.507	171.17
513.586	170.6
513.665	179.2
513.744	173.22
513.823	161.09
513.902	165.93
513.981	160.85
514.06	152.33
514.138	150.44
514.217	149.62
514.296	149.79
514.375	154.13
514.454	159.86
514.533	166.99
514.612	156.51
514.691	147.17
514.769	148.07
514.848	138.07
514.927	127.18
515.006	137.75
515.085	145.45
515.163	140.2
515.242	137.83
515.321	139.55
515.4	140.7
515.479	130.05
515.557	142.01
515.636	142.91
515.715	149.71
515.794	147.99
515.872	148.72
515.951	131.52
516.03	140.7
516.108	133.57
516.187	132.09
516.266	126.85
516.344	122.84
516.423	117.18
516.502	121.53
516.58	123.41
516.659	130.95
516.738	137.01
516.816	131.93
516.895	126.93
516.974	111.7
517.052	110.3
517.131	96.46
517.209	94.74
517.288	89.5
517.367	103.83
517.445	101.21
517.524	115.79
517.602	121.85
517.681	126.69
517.759	118.09
517.838	122.84
517.916	118.33
517.995	110.96
518.073	106.13
518.152	108.67
518.23	108.34
518.309	120.46
518.387	130.54
518.466	138.65
518.544	144.71
518.623	141.11
518.701	127.34
518.779	122.26
518.858	117.35
518.936	113.83
519.015	111.2
519.093	116.37
519.171	115.96
519.25	107.52
519.328	99.08
519.407	96.46
519.485	86.87
519.563	85.81
519.642	82.78
519.72	87.86
519.798	87.45
519.876	89.58
519.955	89.99
520.033	98.26
520.111	96.71
520.19	98.43
520.268	98.43
520.346	95.23
520.424	93.67
520.503	89.09
520.581	86.87
520.659	88.68
520.737	95.97
520.816	99.41
520.894	102.11
520.972	105.8
521.05	103.5
521.128	95.89
521.206	93.67
521.285	96.95
521.363	98.51
521.441	91.63
521.519	97.2
521.597	93.43
521.675	89.99
521.753	81.14
521.832	90.89
521.91	81.3
521.988	79.01
522.066	83.93
522.144	87.45
522.222	88.27
522.3	86.47
522.378	86.55
522.456	82.78
522.534	77.54
522.612	71.06
522.69	68.36
522.768	74.91
522.846	75.73
522.924	75.41
523.002	71.56
523.08	76.96
523.158	73.44
523.236	75.08
523.314	74.01
523.392	78.68
523.47	72.46
523.548	83.52
523.626	79.01
523.704	81.88
523.781	75
523.859	84.5
523.937	74.34
524.015	73.44
524.093	69.92
524.171	80.98
524.249	71.06
524.327	63.12
524.404	66.72
524.482	69.92
524.56	69.26
524.638	72.54
524.716	94.49
524.793	86.87
524.871	82.62
524.949	74.42
525.027	80.73
525.104	62.71
525.182	69.92
525.26	74.67
525.338	69.92
525.415	53.62
525.493	53.86
525.571	45.67
525.649	45.59
525.726	50.99
525.804	61.48
525.882	60.82
525.959	66.72
526.037	66.8
526.115	73.69
526.192	77.7
526.27	80.81
526.347	78.11
526.425	71.31
526.503	76.31
526.58	65.66
526.658	54.6
526.736	45.67
526.813	55.09
526.891	40.92
526.968	48.37
527.046	58.45
527.123	73.11
527.201	61.81
527.278	64.27
527.356	67.71
527.433	63.12
527.511	55.34
527.588	57.06
527.666	60.42
527.743	50.01
527.821	44.77
527.898	44.77
527.976	44.44
528.053	47.39
528.131	54.44
528.208	62.3
528.285	66.07
528.363	73.28
528.44	61.81
528.518	54.27
528.595	52.55
528.672	55.17
528.75	55.17
528.827	61.15
528.905	60.58
528.982	59.35
529.059	48.62
529.137	48.54
529.214	41.41
529.291	44.52
529.369	51.65
529.446	45.51
529.523	39.69
529.6	47.64
529.678	51.08
529.755	44.2
529.832	53.29
529.909	50.83
529.987	52.31
530.064	45.1
530.141	41.57
530.218	44.52
530.296	40.59
530.373	31.58
530.45	39.85
530.527	39.53
530.604	34.94
530.681	37.15
530.759	38.5
530.836	28.19
